"File_140410_103256_151224 - RawData"
"Wavelength nm." "Abs."
200.00 0.0231
201.00 0.0190
202.00 0.0170
203.00 0.0139
204.00 0.0124
205.00 0.0115
206.00 0.0100
207.00 0.0092
208.00 0.0079
209.00 0.0070
210.00 0.0063
211.00 0.0060
212.00 0.0056
213.00 0.0056
214.00 0.0052
215.00 0.0047
216.00 0.0045
217.00 0.0043
218.00 0.0041
219.00 0.0038
220.00 0.0036
221.00 0.0031
222.00 0.0029
223.00 0.0027
224.00 0.0027
225.00 0.0023
226.00 0.0023
227.00 0.0023
228.00 0.0023
229.00 0.0019
230.00 0.0019
231.00 0.0021
232.00 0.0019
233.00 0.0018
234.00 0.0019
235.00 0.0017
236.00 0.0019
237.00 0.0017
238.00 0.0019
239.00 0.0018
240.00 0.0019
241.00 0.0018
242.00 0.0020
243.00 0.0020
244.00 0.0019
245.00 0.0020
246.00 0.0020
247.00 0.0018
248.00 0.0021
249.00 0.0023
250.00 0.0023
251.00 0.0020
252.00 0.0021
253.00 0.0022
254.00 0.0021
255.00 0.0020
256.00 0.0023
257.00 0.0022
258.00 0.0021
259.00 0.0021
260.00 0.0019
261.00 0.0018
262.00 0.0019
263.00 0.0018
264.00 0.0018
265.00 0.0017
266.00 0.0017
267.00 0.0013
268.00 0.0014
269.00 0.0013
270.00 0.0014
271.00 0.0013
272.00 0.0012
273.00 0.0013
274.00 0.0011
275.00 0.0011
276.00 0.0012
277.00 0.0010
278.00 0.0009
279.00 0.0010
280.00 0.0009
281.00 0.0010
282.00 0.0009
283.00 0.0010
284.00 0.0009
285.00 0.0007
286.00 0.0008
287.00 0.0007
288.00 0.0007
289.00 0.0005
290.00 0.0005
291.00 0.0006
292.00 0.0006
293.00 0.0003
294.00 0.0004
295.00 0.0003
296.00 0.0005
297.00 0.0006
298.00 0.0007
299.00 0.0005
300.00 0.0003
301.00 0.0004
302.00 0.0005
303.00 0.0001
304.00 0.0003
305.00 0.0004
306.00 0.0005
307.00 0.0004
308.00 0.0005
309.00 0.0004
310.00 -0.0001
311.00 0.0001
312.00 0.0001
313.00 0.0006
314.00 0.0003
315.00 0.0006
316.00 0.0003
317.00 0.0005
318.00 0.0003
319.00 0.0004
320.00 0.0003
321.00 0.0002
322.00 0.0004
323.00 0.0001
324.00 0.0002
325.00 0.0002
326.00 -0.0000
327.00 -0.0001
328.00 0.0003
329.00 0.0004
330.00 0.0002
331.00 0.0002
332.00 0.0002
333.00 0.0003
334.00 0.0004
335.00 0.0005
336.00 0.0002
337.00 0.0002
338.00 0.0002
339.00 0.0003
340.00 -0.0001
341.00 0.0000
342.00 -0.0001
343.00 -0.0001
344.00 0.0000
345.00 0.0001
346.00 0.0000
347.00 -0.0001
348.00 -0.0000
349.00 -0.0000
350.00 -0.0002
351.00 0.0000
352.00 0.0003
353.00 0.0001
354.00 0.0002
355.00 0.0002
356.00 0.0002
357.00 0.0000
358.00 -0.0001
359.00 0.0002
360.00 0.0003
361.00 0.0000
362.00 0.0000
363.00 0.0000
364.00 0.0001
365.00 0.0000
366.00 0.0000
367.00 0.0003
368.00 0.0002
369.00 0.0001
370.00 0.0002
371.00 0.0001
372.00 0.0002
373.00 0.0002
374.00 0.0000
375.00 0.0000
376.00 0.0001
377.00 -0.0000
378.00 -0.0000
379.00 -0.0001
380.00 -0.0001
381.00 0.0001
382.00 0.0001
383.00 0.0000
384.00 0.0001
385.00 0.0000
386.00 0.0000
387.00 -0.0000
388.00 0.0000
389.00 -0.0000
390.00 -0.0000
391.00 -0.0001
392.00 0.0000
393.00 -0.0001
394.00 -0.0001
395.00 -0.0000
396.00 -0.0001
397.00 -0.0000
398.00 -0.0001
399.00 -0.0001
400.00 -0.0000
401.00 -0.0001
402.00 -0.0002
403.00 -0.0001
404.00 -0.0001
405.00 -0.0001
406.00 -0.0001
407.00 -0.0002
408.00 -0.0001
409.00 -0.0001
410.00 -0.0001
411.00 -0.0001
412.00 -0.0001
413.00 -0.0001
414.00 -0.0001
415.00 -0.0001
416.00 -0.0002
417.00 -0.0002
418.00 -0.0002
419.00 -0.0001
420.00 -0.0002
421.00 -0.0001
422.00 -0.0002
423.00 -0.0002
424.00 -0.0001
425.00 -0.0002
426.00 -0.0002
427.00 -0.0002
428.00 -0.0001
429.00 -0.0003
430.00 -0.0002
431.00 -0.0001
432.00 -0.0002
433.00 -0.0002
434.00 -0.0002
435.00 -0.0002
436.00 -0.0002
437.00 -0.0002
438.00 -0.0002
439.00 -0.0002
440.00 -0.0002
441.00 -0.0002
442.00 -0.0002
443.00 -0.0002
444.00 -0.0002
445.00 -0.0002
446.00 -0.0002
447.00 -0.0002
448.00 -0.0002
449.00 -0.0002
450.00 -0.0002
451.00 -0.0002
452.00 -0.0002
453.00 -0.0002
454.00 -0.0002
455.00 -0.0002
456.00 -0.0002
457.00 -0.0002
458.00 -0.0002
459.00 -0.0002
460.00 -0.0002
461.00 -0.0002
462.00 -0.0001
463.00 -0.0002
464.00 -0.0002
465.00 -0.0002
466.00 -0.0002
467.00 -0.0002
468.00 -0.0002
469.00 -0.0001
470.00 -0.0001
471.00 -0.0002
472.00 -0.0001
473.00 -0.0002
474.00 -0.0002
475.00 -0.0002
476.00 -0.0002
477.00 -0.0002
478.00 -0.0001
479.00 -0.0002
480.00 -0.0001
481.00 -0.0002
482.00 -0.0002
483.00 -0.0001
484.00 -0.0001
485.00 -0.0002
486.00 -0.0001
487.00 -0.0001
488.00 -0.0001
489.00 -0.0001
490.00 -0.0002
491.00 -0.0002
492.00 -0.0001
493.00 -0.0002
494.00 -0.0001
495.00 -0.0001
496.00 -0.0001
497.00 -0.0000
498.00 0.0000
499.00 -0.0001
500.00 -0.0001
501.00 -0.0001
502.00 -0.0001
503.00 -0.0000
504.00 -0.0000
505.00 -0.0001
506.00 -0.0001
507.00 -0.0000
508.00 -0.0001
509.00 -0.0000
510.00 -0.0000
511.00 0.0000
512.00 0.0000
513.00 0.0000
514.00 0.0000
515.00 0.0000
516.00 0.0000
517.00 0.0000
518.00 -0.0000
519.00 -0.0000
520.00 0.0000
521.00 -0.0000
522.00 -0.0000
523.00 0.0000
524.00 0.0000
525.00 0.0000
526.00 0.0000
527.00 0.0001
528.00 0.0000
529.00 0.0000
530.00 0.0000
531.00 0.0000
532.00 0.0001
533.00 0.0001
534.00 0.0000
535.00 0.0000
536.00 0.0000
537.00 -0.0000
538.00 0.0000
539.00 0.0000
540.00 0.0000
541.00 0.0000
542.00 0.0000
543.00 0.0000
544.00 -0.0000
545.00 0.0000
546.00 -0.0000
547.00 0.0000
548.00 0.0000
549.00 0.0001
550.00 0.0000
551.00 0.0001
552.00 0.0001
553.00 0.0000
554.00 0.0001
555.00 0.0001
556.00 0.0001
557.00 0.0000
558.00 0.0000
559.00 0.0001
560.00 0.0001
561.00 0.0001
562.00 0.0001
563.00 0.0001
564.00 0.0002
565.00 0.0002
566.00 0.0002
567.00 0.0001
568.00 0.0002
569.00 0.0001
570.00 0.0001
571.00 0.0002
572.00 0.0001
573.00 0.0001
574.00 0.0002
575.00 0.0002
576.00 0.0001
577.00 0.0002
578.00 0.0002
579.00 0.0001
580.00 0.0002
581.00 0.0001
582.00 0.0001
583.00 0.0002
584.00 0.0002
585.00 0.0001
586.00 0.0001
587.00 0.0001
588.00 0.0002
589.00 0.0002
590.00 0.0002
591.00 0.0002
592.00 0.0002
593.00 0.0002
594.00 0.0002
595.00 0.0002
596.00 0.0002
597.00 0.0001
598.00 0.0002
599.00 0.0002
600.00 0.0002
601.00 0.0003
602.00 0.0003
603.00 0.0002
604.00 0.0002
605.00 0.0002
606.00 0.0002
607.00 0.0002
608.00 0.0002
609.00 0.0002
610.00 0.0003
611.00 0.0002
612.00 0.0002
613.00 0.0002
614.00 0.0002
615.00 0.0002
616.00 0.0003
617.00 0.0002
618.00 0.0002
619.00 0.0002
620.00 0.0002
621.00 0.0003
622.00 0.0002
623.00 0.0002
624.00 0.0001
625.00 0.0002
626.00 0.0001
627.00 0.0001
628.00 0.0002
629.00 0.0001
630.00 0.0000
631.00 0.0001
632.00 0.0001
633.00 0.0001
634.00 0.0001
635.00 0.0001
636.00 0.0001
637.00 0.0001
638.00 0.0002
639.00 0.0001
640.00 0.0001
641.00 0.0001
642.00 0.0000
643.00 0.0000
644.00 0.0001
645.00 0.0001
646.00 0.0002
647.00 0.0001
648.00 0.0001
649.00 0.0001
650.00 0.0000
651.00 0.0001
652.00 0.0000
653.00 0.0000
654.00 0.0000
655.00 0.0001
656.00 0.0001
657.00 0.0001
658.00 0.0000
659.00 0.0001
660.00 0.0001
661.00 0.0001
662.00 0.0002
663.00 0.0001
664.00 0.0001
665.00 0.0000
666.00 0.0001
667.00 0.0001
668.00 0.0001
669.00 0.0000
670.00 0.0000
671.00 0.0000
672.00 0.0000
673.00 -0.0000
674.00 0.0000
675.00 0.0001
676.00 0.0000
677.00 0.0000
678.00 -0.0001
679.00 -0.0000
680.00 0.0000
681.00 0.0001
682.00 0.0000
683.00 0.0001
684.00 0.0000
685.00 -0.0001
686.00 -0.0001
687.00 -0.0000
688.00 -0.0001
689.00 -0.0001
690.00 -0.0000
691.00 0.0000
692.00 -0.0000
693.00 0.0000
694.00 0.0000
695.00 -0.0001
696.00 -0.0002
697.00 -0.0000
698.00 -0.0000
699.00 -0.0001
700.00 -0.0000
701.00 -0.0000
702.00 -0.0000
703.00 -0.0001
704.00 -0.0000
705.00 0.0000
706.00 -0.0001
707.00 -0.0001
708.00 -0.0001
709.00 0.0000
710.00 0.0000
711.00 -0.0000
712.00 0.0000
713.00 0.0000
714.00 0.0001
715.00 0.0000
716.00 0.0000
717.00 0.0001
718.00 0.0002
719.00 0.0000
720.00 0.0001
721.00 0.0001
722.00 0.0002
723.00 0.0003
724.00 0.0002
725.00 0.0002
726.00 0.0003
727.00 0.0002
728.00 0.0003
729.00 0.0002
730.00 0.0002
731.00 0.0003
732.00 0.0003
733.00 0.0003
734.00 0.0003
735.00 0.0004
736.00 0.0004
737.00 0.0004
738.00 0.0004
739.00 0.0004
740.00 0.0004
741.00 0.0004
742.00 0.0004
743.00 0.0004
744.00 0.0003
745.00 0.0004
746.00 0.0004
747.00 0.0004
748.00 0.0002
749.00 0.0003
750.00 0.0004
751.00 0.0003
752.00 0.0003
753.00 0.0003
754.00 0.0003
755.00 0.0002
756.00 0.0003
757.00 0.0002
758.00 0.0002
759.00 0.0002
760.00 0.0002
761.00 0.0001
762.00 0.0002
763.00 0.0002
764.00 0.0001
765.00 0.0000
766.00 0.0001
767.00 0.0002
768.00 0.0001
769.00 0.0001
770.00 0.0001
771.00 0.0000
772.00 0.0001
773.00 0.0000
774.00 0.0001
775.00 0.0002
776.00 0.0001
777.00 0.0001
778.00 0.0001
779.00 0.0001
780.00 0.0001
781.00 0.0001
782.00 0.0001
783.00 0.0001
784.00 0.0001
785.00 0.0001
786.00 0.0001
787.00 0.0001
788.00 0.0002
789.00 0.0001
790.00 0.0002
791.00 0.0001
792.00 0.0001
793.00 0.0001
794.00 0.0001
795.00 0.0001
796.00 0.0001
797.00 0.0001
798.00 0.0002
799.00 0.0002
800.00 0.0002
801.00 0.0002
802.00 0.0002
803.00 0.0002
804.00 0.0002
805.00 0.0002
806.00 0.0003
807.00 0.0003
808.00 0.0003
809.00 0.0004
810.00 0.0004
811.00 0.0004
812.00 0.0004
813.00 0.0004
814.00 0.0004
815.00 0.0004
816.00 0.0004
817.00 0.0005
818.00 0.0005
819.00 0.0005
820.00 0.0006
821.00 0.0006
822.00 0.0005
823.00 0.0005
824.00 0.0006
825.00 0.0006
826.00 0.0007
827.00 0.0006
828.00 0.0007
829.00 0.0007
830.00 0.0007
831.00 0.0008
832.00 0.0008
833.00 0.0009
834.00 0.0010
835.00 0.0010
836.00 0.0010
837.00 0.0010
838.00 0.0010
839.00 0.0009
840.00 0.0009
841.00 0.0009
842.00 0.0009
843.00 0.0009
844.00 0.0009
845.00 0.0009
846.00 0.0008
847.00 0.0008
848.00 0.0008
849.00 0.0007
850.00 0.0008
851.00 0.0007
852.00 0.0007
853.00 0.0008
854.00 0.0007
855.00 0.0007
856.00 0.0007
857.00 0.0007
858.00 0.0006
859.00 0.0005
860.00 0.0005
861.00 0.0005
862.00 0.0006
863.00 0.0004
864.00 0.0004
865.00 0.0005
866.00 0.0005
867.00 0.0004
868.00 0.0004
869.00 0.0004
870.00 0.0003
871.00 0.0003
872.00 0.0002
873.00 0.0004
874.00 0.0003
875.00 0.0002
876.00 0.0002
877.00 0.0002
878.00 0.0001
879.00 0.0001
880.00 0.0001
881.00 0.0001
882.00 0.0001
883.00 0.0001
884.00 0.0001
885.00 -0.0001
886.00 0.0000
887.00 0.0000
888.00 0.0001
889.00 0.0000
890.00 0.0000
891.00 0.0000
892.00 0.0001
893.00 0.0000
894.00 0.0000
895.00 0.0000
896.00 0.0001
897.00 0.0000
898.00 0.0001
899.00 0.0000
900.00 0.0000
901.00 0.0002
902.00 0.0002
903.00 0.0001
904.00 0.0001
905.00 0.0001
906.00 0.0001
907.00 0.0002
908.00 0.0002
909.00 0.0003
910.00 0.0002
911.00 0.0002
912.00 0.0003
913.00 0.0003
914.00 0.0004
915.00 0.0004
916.00 0.0005
917.00 0.0005
918.00 0.0005
919.00 0.0004
920.00 0.0005
921.00 0.0007
922.00 0.0007
923.00 0.0009
924.00 0.0011
925.00 0.0010
926.00 0.0013
927.00 0.0013
928.00 0.0014
929.00 0.0015
930.00 0.0017
931.00 0.0018
932.00 0.0020
933.00 0.0021
934.00 0.0023
935.00 0.0024
936.00 0.0025
937.00 0.0027
938.00 0.0029
939.00 0.0031
940.00 0.0032
941.00 0.0034
942.00 0.0035
943.00 0.0038
944.00 0.0040
945.00 0.0041
946.00 0.0042
947.00 0.0044
948.00 0.0047
949.00 0.0051
950.00 0.0053
951.00 0.0057
952.00 0.0061
953.00 0.0063
954.00 0.0067
955.00 0.0072
956.00 0.0075
957.00 0.0079
958.00 0.0085
959.00 0.0088
960.00 0.0086
961.00 0.0090
962.00 0.0086
963.00 0.0087
964.00 0.0087
965.00 0.0085
966.00 0.0084
967.00 0.0082
968.00 0.0082
969.00 0.0081
970.00 0.0077
971.00 0.0074
972.00 0.0070
973.00 0.0070
974.00 0.0068
975.00 0.0069
976.00 0.0066
977.00 0.0063
978.00 0.0059
979.00 0.0060
980.00 0.0056
981.00 0.0051
982.00 0.0053
983.00 0.0050
984.00 0.0047
985.00 0.0045
986.00 0.0042
987.00 0.0038
988.00 0.0033
989.00 0.0030
990.00 0.0027
991.00 0.0026
992.00 0.0025
993.00 0.0024
994.00 0.0022
995.00 0.0017
996.00 0.0016
997.00 0.0016
998.00 0.0015
999.00 0.0011
1000.00 0.0011
1001.00 0.0009
1002.00 0.0008
1003.00 0.0005
1004.00 0.0003
1005.00 0.0002
1006.00 0.0002
1007.00 0.0000
1008.00 -0.0001
1009.00 -0.0002
1010.00 -0.0003
1011.00 -0.0005
1012.00 -0.0006
1013.00 -0.0006
1014.00 -0.0007
1015.00 -0.0008
1016.00 -0.0007
1017.00 -0.0008
1018.00 -0.0009
1019.00 -0.0009
1020.00 -0.0009
1021.00 -0.0009
1022.00 -0.0010
1023.00 -0.0011
1024.00 -0.0011
1025.00 -0.0011
1026.00 -0.0011
1027.00 -0.0011
1028.00 -0.0012
1029.00 -0.0012
1030.00 -0.0010
1031.00 -0.0009
1032.00 -0.0010
1033.00 -0.0010
1034.00 -0.0011
1035.00 -0.0011
1036.00 -0.0011
1037.00 -0.0010
1038.00 -0.0009
1039.00 -0.0009
1040.00 -0.0009
1041.00 -0.0009
1042.00 -0.0009
1043.00 -0.0009
1044.00 -0.0009
1045.00 -0.0007
1046.00 -0.0007
1047.00 -0.0008
1048.00 -0.0008
1049.00 -0.0007
1050.00 -0.0007
1051.00 -0.0006
1052.00 -0.0005
1053.00 -0.0005
1054.00 -0.0005
1055.00 -0.0006
1056.00 -0.0005
1057.00 -0.0003
1058.00 -0.0003
1059.00 -0.0003
1060.00 -0.0004
1061.00 -0.0004
1062.00 -0.0003
1063.00 -0.0003
1064.00 -0.0003
1065.00 -0.0002
1066.00 -0.0002
1067.00 -0.0003
1068.00 -0.0002
1069.00 -0.0002
1070.00 -0.0002
1071.00 -0.0002
1072.00 -0.0002
1073.00 -0.0001
1074.00 -0.0001
1075.00 -0.0001
1076.00 -0.0001
1077.00 -0.0001
1078.00 0.0000
1079.00 0.0001
1080.00 0.0001
1081.00 0.0000
1082.00 0.0001
1083.00 0.0002
1084.00 0.0001
1085.00 0.0002
1086.00 0.0003
1087.00 0.0004
1088.00 0.0005
1089.00 0.0003
1090.00 0.0004
1091.00 0.0004
1092.00 0.0005
1093.00 0.0007
1094.00 0.0008
1095.00 0.0008
1096.00 0.0008
1097.00 0.0008
1098.00 0.0009
1099.00 0.0010
1100.00 0.0010
